# InSb In  InSb
# InSb In  InSb
# Presumably, the phonon spectrum has no band gap
#Contribution From:
#                         Acoustic part
#Integrated Phonon  DOS:    5.89568170
#Integrated Partial DOS:    3.03968360
#Zero vibration energy :    0.00161789
#Contribution From:
#               Acoustic part
##################################################################
#   T,K     Vibr.energy   Heat capacity  Entropy       Int.energy
##################################################################
    5.00    0.00161788    0.00370828    0.00104191    0.00161791
   10.00    0.00161767    0.07218508    0.01745208    0.00161878
   15.00    0.00161628    0.25454834    0.07873268    0.00162376
   20.00    0.00161225    0.46300015    0.18072449    0.00163514
   25.00    0.00160460    0.65280807    0.30484662    0.00165287
   30.00    0.00159284    0.82391456    0.43921046    0.00167629
   35.00    0.00157674    0.98441013    0.57836643    0.00170494
   40.00    0.00155618    1.13875921    0.71995134    0.00173857
   45.00    0.00153113    1.28753955    0.86272698    0.00177700
   50.00    0.00150154    1.42949937    1.00579694    0.00182004
   55.00    0.00146743    1.56309581    1.14837992    0.00186745
   60.00    0.00142882    1.68720190    1.28977958    0.00191894
   65.00    0.00138577    1.80128009    1.42939994    0.00197420
   70.00    0.00133832    1.90531189    1.56675762    0.00203291
   75.00    0.00128657    1.99965352    1.70148178    0.00209477
   80.00    0.00123059    2.08489493    1.83330465    0.00215946
   85.00    0.00117049    2.16174867    1.96204717    0.00222672
   90.00    0.00110636    2.23097163    2.08760332    0.00229629
   95.00    0.00103831    2.29331434    2.20992528    0.00236795
  100.00    0.00096643    2.34949070    2.32901024    0.00244147
  105.00    0.00089084    2.40016188    2.44488947    0.00251669
  110.00    0.00081162    2.44592939    2.55761926    0.00259343
  115.00    0.00072889    2.48733395    2.66727379    0.00267155
  120.00    0.00064273    2.52485767    2.77393957    0.00275092
  125.00    0.00055324    2.55892809    2.87771106    0.00283142
  130.00    0.00046050    2.58992307    2.97868737    0.00291295
  135.00    0.00036461    2.61817586    3.07696984    0.00299542
  140.00    0.00026565    2.64398007    3.17266012    0.00307874
  145.00    0.00016371    2.66759433    3.26585883    0.00316285
  150.00    0.00005884    2.68924653    3.35666461    0.00324767
  155.00   -0.00004886    2.70913762    3.44517341    0.00333315
  160.00   -0.00015933    2.72744502    3.53147806    0.00341923
  165.00   -0.00027250    2.74432555    3.61566793    0.00350587
  170.00   -0.00038830    2.75991803    3.69782881    0.00359303
  175.00   -0.00050667    2.77434557    3.77804281    0.00368066
  180.00   -0.00062756    2.78771752    3.85638838    0.00376872
  185.00   -0.00075089    2.80013118    3.93294035    0.00385720
  190.00   -0.00087662    2.81167330    4.00777001    0.00394606
  195.00   -0.00100470    2.82242134    4.08094522    0.00403526
  200.00   -0.00113507    2.83244462    4.15253055    0.00412480
  205.00   -0.00126768    2.84180526    4.22258740    0.00421465
  210.00   -0.00140248    2.85055905    4.29117417    0.00430478
  215.00   -0.00153943    2.85875619    4.35834635    0.00439518
  220.00   -0.00167849    2.86644189    4.42415672    0.00448583
  225.00   -0.00181962    2.87365700    4.48865547    0.00457671
  230.00   -0.00196276    2.88043844    4.55189032    0.00466782
  235.00   -0.00210789    2.88681964    4.61390669    0.00475914
  240.00   -0.00225496    2.89283096    4.67474776    0.00485065
  245.00   -0.00240395    2.89849997    4.73445468    0.00494234
  250.00   -0.00255480    2.90385176    4.79306662    0.00503422
  255.00   -0.00270750    2.90890921    4.85062090    0.00512625
  260.00   -0.00286200    2.91369321    4.90715307    0.00521844
  265.00   -0.00301827    2.91822284    4.96269706    0.00531078
  270.00   -0.00317629    2.92251559    5.01728522    0.00540326
  275.00   -0.00333602    2.92658747    5.07094843    0.00549587
  280.00   -0.00349744    2.93045320    5.12371619    0.00558861
  285.00   -0.00366052    2.93412629    5.17561665    0.00568147
  290.00   -0.00382522    2.93761919    5.22667676    0.00577444
  295.00   -0.00399153    2.94094337    5.27692226    0.00586751
  300.00   -0.00415942    2.94410940    5.32637779    0.00596069
  305.00   -0.00432886    2.94712705    5.37506693    0.00605397
  310.00   -0.00449983    2.95000537    5.42301227    0.00614734
  315.00   -0.00467231    2.95275272    5.47023546    0.00624080
  320.00   -0.00484627    2.95537685    5.51675723    0.00633435
  325.00   -0.00502169    2.95788495    5.56259748    0.00642798
  330.00   -0.00519856    2.96028371    5.60777531    0.00652168
  335.00   -0.00537685    2.96257934    5.65230903    0.00661546
  340.00   -0.00555653    2.96477762    5.69621626    0.00670931
  345.00   -0.00573760    2.96688392    5.73951390    0.00680323
  350.00   -0.00592003    2.96890328    5.78221821    0.00689721
  355.00   -0.00610380    2.97084038    5.82434482    0.00699126
  360.00   -0.00628890    2.97269959    5.86590877    0.00708536
  365.00   -0.00647530    2.97448500    5.90692454    0.00717953
  370.00   -0.00666300    2.97620045    5.94740607    0.00727375
  375.00   -0.00685197    2.97784951    5.98736678    0.00736802
  380.00   -0.00704219    2.97943554    6.02681962    0.00746234
  385.00   -0.00723366    2.98096171    6.06577706    0.00755672
  390.00   -0.00742635    2.98243095    6.10425114    0.00765114
  395.00   -0.00762026    2.98384606    6.14225345    0.00774560
  400.00   -0.00781536    2.98520964    6.17979521    0.00784011
  405.00   -0.00801164    2.98652415    6.21688724    0.00793467
  410.00   -0.00820909    2.98779191    6.25353997    0.00802926
  415.00   -0.00840769    2.98901509    6.28976352    0.00812389
  420.00   -0.00860743    2.99019575    6.32556763    0.00821856
  425.00   -0.00880831    2.99133583    6.36096175    0.00831327
  430.00   -0.00901029    2.99243715    6.39595500    0.00840801
  435.00   -0.00921338    2.99350145    6.43055621    0.00850279
  440.00   -0.00941756    2.99453035    6.46477393    0.00859760
  445.00   -0.00962281    2.99552541    6.49861643    0.00869244
  450.00   -0.00982913    2.99648808    6.53209173    0.00878732
  455.00   -0.01003650    2.99741975    6.56520760    0.00888222
  460.00   -0.01024492    2.99832173    6.59797156    0.00897715
  465.00   -0.01045437    2.99919526    6.63039090    0.00907211
  470.00   -0.01066484    3.00004152    6.66247270    0.00916710
  475.00   -0.01087633    3.00086163    6.69422383    0.00926212
  480.00   -0.01108881    3.00165665    6.72565092    0.00935716
  485.00   -0.01130228    3.00242760    6.75676046    0.00945222
  490.00   -0.01151673    3.00317542    6.78755871    0.00954731
  495.00   -0.01173215    3.00390103    6.81805176    0.00964242
  500.00   -0.01194854    3.00460531    6.84824552    0.00973756
